#DataThief /home/joe/research/reactor_spectra/sens_spectra_final/working_dir/spectra/ricochet_cevns_spectra/results/bump/fit_bump/daya_bay_bump_ratio_plot_modified (another copy).png Friday 15-May-2020 8:10:11 PM
0.2967, 0.9697
0.3068, 0.9697
0.3169, 0.9715
0.327, 0.9715
0.3372, 0.9734
0.3473, 0.9734
0.3574, 0.9752
0.3675, 0.9752
0.3776, 0.9752
0.3878, 0.9769
0.3979, 0.9769
0.408, 0.9788
0.4181, 0.9788
0.4282, 0.9807
0.4384, 0.9807
0.4485, 0.9807
0.4586, 0.9826
0.4687, 0.9826
0.4788, 0.9844
0.4889, 0.9844
0.499, 0.9862
0.5091, 0.9862
0.5192, 0.9862
0.5293, 0.9881
0.5396, 0.9881
0.5497, 0.9899
0.5598, 0.9899
0.5699, 0.9918
0.58, 0.9918
0.5901, 0.9936
0.6002, 0.9936
0.6104, 0.9936
0.6205, 0.9954
0.6306, 0.9954
0.6407, 0.9973
0.6509, 0.9973
0.661, 0.999
0.6711, 0.999
0.6812, 0.999
0.6913, 1.001
0.7015, 1.001
0.7116, 1.0028
0.7217, 1.0028
0.7318, 1.0028
0.742, 1.0028
0.7521, 1.0028
0.7622, 1.0028
0.7724, 1.0028
0.7825, 1.0028
0.7926, 1.0028
0.8028, 1.0028
0.8129, 1.0028
0.823, 1.0028
0.8331, 1.0028
0.8433, 1.0028
0.8534, 1.0028
0.8635, 1.0028
0.8737, 1.0028
0.8838, 1.001
0.8939, 1.001
0.9041, 1.001
0.9142, 1.001
0.9243, 1.001
0.9344, 0.999
0.9445, 0.999
0.9546, 0.999
0.9649, 0.999
0.975, 0.999
0.9851, 0.9973
0.9952, 0.9973
1.0054, 0.9973
1.0155, 0.9973
1.0257, 0.9973
1.0358, 0.9973
1.046, 0.9955
1.0561, 0.9955
1.0662, 0.9955
1.0763, 0.9955
1.0865, 0.9955
1.0966, 0.9955
1.1068, 0.9936
1.1169, 0.9936
1.127, 0.9936
1.1371, 0.9936
1.1473, 0.9936
1.1574, 0.9936
1.1675, 0.9936
1.1777, 0.9936
1.1878, 0.9918
1.198, 0.9918
1.2081, 0.9918
1.2182, 0.9918
1.2283, 0.9918
1.2385, 0.9918
1.2486, 0.99
1.2588, 0.99
1.2689, 0.99
1.279, 0.99
1.2891, 0.99
1.2993, 0.99
1.3094, 0.9881
1.3195, 0.9881
1.3296, 0.9863
1.3397, 0.9863
1.35, 0.9863
1.3601, 0.9844
1.3703, 0.9844
1.3804, 0.9844
1.3905, 0.9826
1.4007, 0.9826
1.4108, 0.9808
1.4209, 0.9808
1.4311, 0.9808
1.4412, 0.9788
1.4514, 0.9788
1.4615, 0.9771
1.4716, 0.9771
1.4818, 0.9771
1.4919, 0.9752
1.5021, 0.9752
1.5122, 0.9752
1.5223, 0.9752
1.5325, 0.9734
1.5426, 0.9734
1.5527, 0.9716
1.5629, 0.9716
1.573, 0.9716
1.5831, 0.9716
1.5933, 0.9716
1.6034, 0.9716
1.6135, 0.9716
1.6237, 0.9716
1.6338, 0.9716
1.6439, 0.9716
1.654, 0.9716
1.6642, 0.9716
1.6743, 0.9716
1.6844, 0.9716
1.6945, 0.9716
1.7046, 0.9734
1.7147, 0.9734
1.7248, 0.9734
1.7351, 0.9734
1.7452, 0.9734
1.7553, 0.9734
1.7654, 0.9734
1.7755, 0.9734
1.7856, 0.9734
1.7957, 0.9752
1.8058, 0.9752
1.8161, 0.9752
1.8262, 0.9752
1.8363, 0.9752
1.8465, 0.9752
1.8566, 0.9752
1.8667, 0.9752
1.8769, 0.9752
1.887, 0.9752
1.8971, 0.9752
1.9072, 0.9752
1.9174, 0.9752
1.9275, 0.9752
1.9376, 0.9752
1.9478, 0.9734
1.9579, 0.9734
1.968, 0.9734
1.9782, 0.9734
1.9883, 0.9734
1.9984, 0.9734
2.0086, 0.9734
2.0187, 0.9734
2.0288, 0.9734
2.039, 0.9716
2.0491, 0.9716
2.0592, 0.9716
2.0694, 0.9716
2.0795, 0.9716
2.0896, 0.9716
2.0998, 0.9716
2.1099, 0.9716
2.12, 0.9716
2.1302, 0.9698
2.1403, 0.9698
2.1504, 0.9698
2.1606, 0.9698
2.1707, 0.9698
2.1808, 0.9698
2.1909, 0.9698
2.2011, 0.9698
2.2112, 0.9698
2.2213, 0.9698
2.2315, 0.9698
2.2416, 0.9698
2.2517, 0.9716
2.2618, 0.9716
2.272, 0.9716
2.2821, 0.9716
2.2922, 0.9716
2.3024, 0.9716
2.3125, 0.9716
2.3226, 0.9716
2.3327, 0.9716
2.3429, 0.9716
2.353, 0.9716
2.3631, 0.9716
2.3733, 0.9716
2.3834, 0.9716
2.3935, 0.9716
2.4037, 0.9716
2.4138, 0.9735
2.4239, 0.9735
2.434, 0.9735
2.4441, 0.9752
2.4543, 0.9752
2.4644, 0.9752
2.4745, 0.9752
2.4846, 0.9771
2.4947, 0.9771
2.5049, 0.9771
2.515, 0.9771
2.5251, 0.979
2.5352, 0.979
2.5453, 0.979
2.5554, 0.979
2.5655, 0.9808
2.5756, 0.9808
2.5859, 0.9808
2.596, 0.9808
2.6061, 0.9808
2.6162, 0.9827
2.6263, 0.9827
2.6364, 0.9827
2.6465, 0.9827
2.6566, 0.9845
2.6669, 0.9845
2.677, 0.9845
2.6871, 0.9845
2.6973, 0.9845
2.7074, 0.9864
2.7175, 0.9864
2.7276, 0.9864
2.7377, 0.9864
2.7479, 0.9864
2.758, 0.9864
2.7681, 0.9882
2.7782, 0.9882
2.7884, 0.9882
2.7985, 0.9882
2.8086, 0.9882
2.8188, 0.9882
2.8289, 0.9882
2.839, 0.99
2.8491, 0.99
2.8593, 0.99
2.8694, 0.99
2.8795, 0.9901
2.8896, 0.9901
2.8998, 0.9901
2.9099, 0.9901
2.92, 0.9901
2.9302, 0.9901
2.9403, 0.9901
2.9504, 0.9901
2.9606, 0.9901
2.9707, 0.9901
2.9808, 0.9901
2.9909, 0.9901
3.0011, 0.9901
3.0112, 0.9901
3.0213, 0.9901
3.0315, 0.9901
3.0416, 0.9901
3.0517, 0.9901
3.0619, 0.9901
3.072, 0.9901
3.0821, 0.9901
3.0923, 0.9882
3.1024, 0.9882
3.1125, 0.9882
3.1227, 0.9882
3.1328, 0.9882
3.1429, 0.9882
3.153, 0.9882
3.1632, 0.9864
3.1733, 0.9864
3.1835, 0.9864
3.1936, 0.9864
3.2037, 0.9864
3.2138, 0.9864
3.224, 0.9864
3.2341, 0.9846
3.2443, 0.9846
3.2544, 0.9846
3.2645, 0.9846
3.2746, 0.9846
3.2848, 0.9846
3.2949, 0.9846
3.305, 0.9846
3.3152, 0.9846
3.3253, 0.9846
3.3354, 0.9846
3.3456, 0.9846
3.3557, 0.9846
3.3658, 0.9846
3.3759, 0.9846
3.386, 0.9846
3.3961, 0.9846
3.4062, 0.9846
3.4165, 0.9846
3.4266, 0.9846
3.4367, 0.9846
3.4469, 0.9846
3.457, 0.9846
3.4671, 0.9846
3.4772, 0.9846
3.4874, 0.9846
3.4975, 0.9846
3.5076, 0.9864
3.5177, 0.9864
3.5279, 0.9864
3.538, 0.9864
3.5481, 0.9864
3.5583, 0.9864
3.5684, 0.9883
3.5785, 0.9883
3.5886, 0.9883
3.5988, 0.9883
3.6089, 0.9883
3.619, 0.9901
3.6291, 0.9901
3.6393, 0.9901
3.6494, 0.9901
3.6595, 0.9901
3.6696, 0.9919
3.6797, 0.9919
3.6899, 0.9919
3.7, 0.9919
3.7101, 0.9919
3.7203, 0.9919
3.7304, 0.9938
3.7405, 0.9938
3.7506, 0.9938
3.7607, 0.9956
3.7709, 0.9956
3.781, 0.9975
3.7911, 0.9992
3.8012, 0.9992
3.8113, 1.0011
3.8214, 1.0011
3.8316, 1.003
3.8417, 1.0048
3.8518, 1.0048
3.8618, 1.0067
3.8719, 1.0085
3.882, 1.0085
3.8921, 1.0103
3.9024, 1.0103
3.9125, 1.0122
3.9226, 1.014
3.9327, 1.014
3.9428, 1.0159
3.9529, 1.0177
3.963, 1.0177
3.9731, 1.0195
3.9832, 1.0195
3.9933, 1.0214
4.0035, 1.0232
4.0136, 1.0232
4.0237, 1.0251
4.0338, 1.0269
4.044, 1.0269
4.0541, 1.0287
4.0642, 1.0306
4.0743, 1.0306
4.0844, 1.0324
4.0946, 1.0324
4.1047, 1.0343
4.1148, 1.0361
4.1249, 1.0361
4.135, 1.0379
4.1451, 1.0398
4.1552, 1.0398
4.1653, 1.0416
4.1755, 1.0416
4.1856, 1.0435
4.1957, 1.0453
4.2058, 1.0453
4.2159, 1.0471
4.226, 1.049
4.2362, 1.049
4.2463, 1.0508
4.2564, 1.0508
4.2665, 1.0527
4.2766, 1.0545
4.2867, 1.0545
4.2968, 1.0563
4.307, 1.0563
4.3171, 1.0563
4.3272, 1.0582
4.3373, 1.0582
4.3475, 1.0582
4.3576, 1.0582
4.3677, 1.0582
4.3778, 1.06
4.388, 1.06
4.3981, 1.06
4.4082, 1.06
4.4184, 1.06
4.4285, 1.06
4.4386, 1.0619
4.4487, 1.0619
4.4588, 1.0619
4.4689, 1.0619
4.4791, 1.0619
4.4892, 1.0619
4.4994, 1.0637
4.5095, 1.0637
4.5196, 1.0637
4.5297, 1.0637
4.5399, 1.0637
4.55, 1.0655
4.5601, 1.0655
4.5702, 1.0656
4.5804, 1.0656
4.5905, 1.0674
4.6006, 1.0674
4.6107, 1.0692
4.6208, 1.0692
4.631, 1.0692
4.6411, 1.0711
4.6512, 1.0711
4.6613, 1.0729
4.6714, 1.0729
4.6816, 1.0729
4.6917, 1.0748
4.7018, 1.0748
4.7119, 1.0766
4.722, 1.0766
4.7322, 1.0784
4.7423, 1.0784
4.7524, 1.0784
4.7625, 1.0803
4.7726, 1.0803
4.7828, 1.0821
4.7929, 1.0821
4.803, 1.0821
4.8131, 1.084
4.8232, 1.084
4.8334, 1.0858
4.8435, 1.0858
4.8536, 1.0858
4.8637, 1.0858
4.8739, 1.0858
4.884, 1.0858
4.8941, 1.0858
4.9043, 1.0858
4.9144, 1.0876
4.9245, 1.0876
4.9346, 1.0876
4.9447, 1.0876
4.9548, 1.0876
4.9649, 1.0876
4.975, 1.0876
4.9853, 1.0876
4.9954, 1.0876
5.0055, 1.0876
5.0157, 1.0876
5.0258, 1.0876
5.0359, 1.0876
5.0461, 1.0876
5.0562, 1.0895
5.0663, 1.0895
5.0764, 1.0895
5.0866, 1.0895
5.0967, 1.0895
5.1068, 1.0895
5.1169, 1.0895
5.1271, 1.0895
5.1372, 1.0895
5.1474, 1.0877
5.1575, 1.0858
5.1676, 1.0858
5.1778, 1.084
5.1879, 1.0821
5.1981, 1.0821
5.2082, 1.0803
5.2184, 1.0785
5.2285, 1.0785
5.2387, 1.0766
5.2488, 1.0748
5.2589, 1.0748
5.2691, 1.0729
5.2792, 1.0729
5.2894, 1.0711
5.2995, 1.0693
5.3096, 1.0693
5.3197, 1.0674
5.33, 1.0656
5.3401, 1.0656
5.3503, 1.0638
5.3604, 1.0619
5.3705, 1.0619
5.3807, 1.0601
5.3908, 1.0601
5.401, 1.0582
5.4111, 1.0582
5.4212, 1.0582
5.4314, 1.0564
5.4415, 1.0564
5.4516, 1.0564
5.4618, 1.0546
5.4719, 1.0546
5.4821, 1.0546
5.4922, 1.0527
5.5023, 1.0527
5.5125, 1.0527
5.5226, 1.0509
5.5328, 1.0509
5.5429, 1.0509
5.553, 1.0491
5.5632, 1.0491
5.5733, 1.0491
5.5834, 1.0472
5.5936, 1.0472
5.6037, 1.0472
5.6139, 1.0454
5.624, 1.0454
5.6341, 1.0454
5.6442, 1.0454
5.6543, 1.0435
5.6644, 1.0435
5.6747, 1.0435
5.6848, 1.0435
5.6949, 1.0435
5.705, 1.0435
5.7151, 1.0417
5.7252, 1.0417
5.7355, 1.0417
5.7456, 1.0417
5.7557, 1.0417
5.7659, 1.0417
5.776, 1.0417
5.7861, 1.0417
5.7962, 1.0417
5.8064, 1.0417
5.8165, 1.0417
5.8266, 1.0417
5.8368, 1.0417
5.8469, 1.0417
5.857, 1.0417
5.8672, 1.0399
5.8773, 1.0399
5.8874, 1.0399
5.8976, 1.0399
5.9077, 1.0399
5.9178, 1.0399
5.928, 1.0399
5.9381, 1.0399
5.9482, 1.0399
5.9583, 1.0399
5.9685, 1.038
5.9786, 1.038
5.9888, 1.0362
5.9989, 1.0344
6.0091, 1.0344
6.0192, 1.0325
6.0294, 1.0307
6.0395, 1.0307
6.0497, 1.0289
6.0598, 1.0289
6.0699, 1.027
6.0801, 1.0252
6.0902, 1.0252
6.1004, 1.0233
6.1105, 1.0233
6.1207, 1.0215
6.1308, 1.0197
6.1409, 1.0197
6.1511, 1.0178
6.1612, 1.016
6.1714, 1.016
6.1815, 1.0141
6.1917, 1.0141
6.2018, 1.0123
6.212, 1.0105
6.2221, 1.0086
6.2322, 1.0086
6.2424, 1.0068
6.2525, 1.005
6.2627, 1.0031
6.2729, 1.0013
6.283, 1.0013
6.2931, 0.9994
6.3033, 0.9976
6.3134, 0.9958
6.3235, 0.9958
6.3336, 0.9939
6.3439, 0.9921
6.354, 0.9903
6.3642, 0.9884
6.3743, 0.9884
6.3845, 0.9866
6.3946, 0.9847
6.4048, 0.9828
6.4149, 0.9811
6.4251, 0.9811
6.4352, 0.9792
6.4454, 0.9774
6.4555, 0.9774
6.4555, 0.9755
6.4656, 0.9755
6.4758, 0.9737
6.4859, 0.9737
6.4961, 0.9719
6.5062, 0.9719
6.5163, 0.9719
6.5265, 0.9719
6.5366, 0.9719
6.5467, 0.9719
6.5569, 0.9719
6.567, 0.9719
6.5771, 0.9719
6.5873, 0.9719
6.5974, 0.9719
6.6075, 0.9719
6.6176, 0.9719
6.6277, 0.9737
6.6379, 0.9737
6.648, 0.9737
6.6581, 0.9737
6.6683, 0.9737
6.6784, 0.9737
6.6885, 0.9737
6.6987, 0.9737
6.7088, 0.9737
6.7189, 0.9756
6.729, 0.9756
6.7391, 0.9756
6.7492, 0.9756
6.7593, 0.9756
6.7694, 0.9756
6.7795, 0.9774
6.7898, 0.9774
6.7999, 0.9792
6.81, 0.9792
6.8201, 0.9811
6.8302, 0.9811
6.8404, 0.9811
6.8505, 0.9828
6.8606, 0.9828
6.8707, 0.9848
6.8809, 0.9848
6.891, 0.9848
6.9011, 0.9866
6.9112, 0.9866
6.9213, 0.9884
6.9315, 0.9884
6.9416, 0.9903
6.9517, 0.9903
6.9618, 0.9903
6.9719, 0.9921
6.9821, 0.9921
6.9922, 0.994
7.0023, 0.994
7.0124, 0.994
7.0225, 0.9958
7.0327, 0.9958
7.0428, 0.9976
7.0529, 0.9976
7.063, 0.9995
7.0731, 0.9995
7.0833, 0.9995
7.0934, 1.0013
7.1035, 1.0013
7.1136, 1.0032
7.1237, 1.0032
7.1339, 1.0032
7.144, 1.005
7.1541, 1.005
7.1642, 1.0068
7.1743, 1.0068
7.1844, 1.0087
7.1945, 1.0087
7.2046, 1.0087
7.2147, 1.0105
7.2248, 1.0105
7.2349, 1.0124
7.2452, 1.0124
7.2553, 1.0124
7.2654, 1.0142
7.2755, 1.0142
7.2856, 1.0161
7.2958, 1.0161
7.3059, 1.0179
7.316, 1.0179
7.3261, 1.0179
7.3362, 1.0197
7.3464, 1.0197
7.3565, 1.0216
7.3666, 1.0216
7.3767, 1.0216
7.3869, 1.0234
7.397, 1.0234
7.4071, 1.0234
7.4172, 1.0234
7.4172, 1.0253
7.4273, 1.0271
7.4375, 1.0271
7.4476, 1.0253
